Setup:	VS900-RIC.vst (modified)
Caption:	VS900-RIC   No. ???
Y-Axis:	dB re 1V/µbar
X-Axis:	Frequency [kHz]
Y-Offset:	-114
Minimum Frequency [Hz]:	50000
Maximum Frequency [Hz]:	1000000
Step size [Hz]:	1000
Output Amplitude [Vpp]:	0.2828
Output Amplitude [Vrms]:	0.1
Acquisition Channel:	1
Date:	12.06.2018

Frequency [Hz]	RMS [dB]
50000	-70.16
51000	-68.7
52000	-68.74
53000	-67.93
54000	-65.95
55000	-64.36
56000	-62.52
57000	-62.21
58000	-62.3
59000	-61.01
60000	-60.61
61000	-60.21
62000	-60.25
63000	-59.9
64000	-59.58
65000	-59.28
66000	-59.18
67000	-59.35
68000	-60
69000	-59.37
70000	-59.78
71000	-59.34
72000	-58.41
73000	-57.5
74000	-55.5
75000	-54.41
76000	-56.34
77000	-56.64
78000	-55.39
79000	-54.28
80000	-54.96
81000	-57.4
82000	-57.18
83000	-58.61
84000	-58.24
85000	-58.13
86000	-57.2
87000	-56.14
88000	-55.39
89000	-54.85
90000	-53.96
91000	-52.95
92000	-52.4
93000	-51.82
94000	-51.31
95000	-50.61
96000	-49.47
97000	-48.87
98000	-49.02
99000	-49.07
100000	-49.69
101000	-50.13
102000	-49.43
103000	-48.92
104000	-48.57
105000	-48.5
106000	-48.46
107000	-48.37
108000	-48.3
109000	-48.41
110000	-48.46
111000	-48.4
112000	-48.42
113000	-48.45
114000	-48.32
115000	-48.05
116000	-47.81
117000	-47.34
118000	-46.76
119000	-46.79
120000	-46.6
121000	-46.21
122000	-45.87
123000	-45.41
124000	-44.88
125000	-44.52
126000	-44.15
127000	-43.75
128000	-43.39
129000	-43.23
130000	-42.88
131000	-42.31
132000	-41.97
133000	-41.49
134000	-40.78
135000	-40.08
136000	-39.51
137000	-39.04
138000	-38.63
139000	-38.56
140000	-38.75
141000	-39.09
142000	-39.54
143000	-40.44
144000	-41.52
145000	-42.95
146000	-44.33
147000	-45.7
148000	-47.28
149000	-49.43
150000	-51.98
151000	-55.27
152000	-59.15
153000	-64.58
154000	-75.01
155000	-57.67
156000	-53.67
157000	-50.92
158000	-49.23
159000	-47.99
160000	-46.78
161000	-45.84
162000	-45.01
163000	-44.21
164000	-43.54
165000	-43.01
166000	-42.62
167000	-42.57
168000	-42.89
169000	-43.74
170000	-44.85
171000	-45.19
172000	-45.81
173000	-46.87
174000	-47.67
175000	-48.23
176000	-48.51
177000	-48.47
178000	-48.18
179000	-47.75
180000	-47.5
181000	-47.42
182000	-47.29
183000	-47
184000	-46.52
185000	-46.04
186000	-45.95
187000	-45.65
188000	-46.4
189000	-47.36
190000	-48.44
191000	-49.53
192000	-50.1
193000	-49.9
194000	-49.95
195000	-50.46
196000	-46.39
197000	-45.48
198000	-45.48
199000	-45.78
200000	-45.78
201000	-45.59
202000	-45.39
203000	-45.29
204000	-45.27
205000	-45.21
206000	-45
207000	-44.25
208000	-43.7
209000	-42.72
210000	-41.83
211000	-41.29
212000	-40.93
213000	-40.58
214000	-40.78
215000	-40.9
216000	-41.11
217000	-41.13
218000	-41.16
219000	-41.25
220000	-41.51
221000	-41.77
222000	-41.92
223000	-41.7
224000	-41.14
225000	-40.84
226000	-40.74
227000	-40.76
228000	-40.74
229000	-40.64
230000	-40.57
231000	-40.56
232000	-40.53
233000	-40.67
234000	-40.87
235000	-40.93
236000	-40.75
237000	-40.44
238000	-40.1
239000	-39.86
240000	-39.63
241000	-39.29
242000	-38.91
243000	-38.62
244000	-38.36
245000	-38.03
246000	-37.8
247000	-37.78
248000	-37.51
249000	-37.33
250000	-37.24
251000	-37.03
252000	-36.74
253000	-36.49
254000	-36.23
255000	-35.97
256000	-35.8
257000	-35.74
258000	-35.75
259000	-35.68
260000	-35.54
261000	-35.26
262000	-34.96
263000	-34.71
264000	-34.55
265000	-34.49
266000	-34.45
267000	-34.43
268000	-34.45
269000	-34.4
270000	-34.29
271000	-34.04
272000	-33.77
273000	-33.59
274000	-33.42
275000	-33.29
276000	-33.28
277000	-33.37
278000	-33.54
279000	-33.74
280000	-33.89
281000	-34.06
282000	-34.24
283000	-34.28
284000	-34.17
285000	-34.03
286000	-33.89
287000	-33.75
288000	-33.69
289000	-33.67
290000	-33.73
291000	-33.93
292000	-34.13
293000	-34.32
294000	-34.4
295000	-34.24
296000	-33.9
297000	-33.44
298000	-32.92
299000	-32.35
300000	-31.8
301000	-31.26
302000	-30.76
303000	-30.27
304000	-29.81
305000	-29.38
306000	-28.96
307000	-28.59
308000	-28.26
309000	-28
310000	-27.82
311000	-27.76
312000	-27.81
313000	-27.99
314000	-28.29
315000	-28.73
316000	-29.35
317000	-30.08
318000	-30.63
319000	-31.07
320000	-31.43
321000	-31.69
322000	-31.79
323000	-31.85
324000	-31.94
325000	-32.08
326000	-32.17
327000	-32.22
328000	-32.26
329000	-32.23
330000	-32.05
331000	-31.69
332000	-31.24
333000	-30.78
334000	-30.41
335000	-30.13
336000	-29.92
337000	-29.78
338000	-29.73
339000	-29.72
340000	-29.67
341000	-29.61
342000	-29.58
343000	-29.57
344000	-29.58
345000	-29.67
346000	-29.76
347000	-29.87
348000	-30.08
349000	-30.3
350000	-30.48
351000	-30.62
352000	-30.77
353000	-30.99
354000	-31.24
355000	-31.53
356000	-31.83
357000	-32.11
358000	-32.41
359000	-32.74
360000	-33.08
361000	-33.4
362000	-33.76
363000	-34.3
364000	-34.94
365000	-35.63
366000	-36.28
367000	-36.89
368000	-37.45
369000	-38.04
370000	-38.63
371000	-39.15
372000	-39.64
373000	-40.12
374000	-40.31
375000	-40.19
376000	-40.01
377000	-39.71
378000	-39.61
379000	-39.82
380000	-40.12
381000	-40.3
382000	-40.31
383000	-40.34
384000	-40.51
385000	-40.63
386000	-40.77
387000	-40.87
388000	-40.83
389000	-40.84
390000	-40.95
391000	-41.01
392000	-40.85
393000	-40.55
394000	-40.29
395000	-40.02
396000	-39.62
397000	-39.26
398000	-38.94
399000	-38.57
400000	-37.96
401000	-37.21
402000	-36.52
403000	-35.93
404000	-35.43
405000	-34.97
406000	-34.66
407000	-34.4
408000	-34.11
409000	-33.76
410000	-33.29
411000	-32.85
412000	-32.5
413000	-32.32
414000	-32.29
415000	-32.37
416000	-32.4
417000	-32.41
418000	-32.49
419000	-32.58
420000	-32.68
421000	-32.78
422000	-32.87
423000	-32.99
424000	-33.13
425000	-33.26
426000	-33.39
427000	-33.5
428000	-33.62
429000	-33.75
430000	-33.89
431000	-34.02
432000	-34.14
433000	-34.23
434000	-34.28
435000	-34.32
436000	-34.35
437000	-34.39
438000	-34.46
439000	-34.55
440000	-34.66
441000	-34.77
442000	-34.88
443000	-34.98
444000	-35.08
445000	-35.16
446000	-35.26
447000	-35.35
448000	-35.4
449000	-35.45
450000	-35.48
451000	-35.49
452000	-35.51
453000	-35.57
454000	-35.63
455000	-35.71
456000	-35.81
457000	-35.9
458000	-36
459000	-36.12
460000	-36.24
461000	-36.32
462000	-36.4
463000	-36.49
464000	-36.59
465000	-36.72
466000	-36.84
467000	-36.93
468000	-37.03
469000	-37.14
470000	-37.23
471000	-37.32
472000	-37.4
473000	-37.49
474000	-37.59
475000	-37.69
476000	-37.78
477000	-37.86
478000	-37.98
479000	-38.09
480000	-38.18
481000	-38.28
482000	-38.38
483000	-38.45
484000	-38.5
485000	-38.54
486000	-38.56
487000	-38.53
488000	-38.44
489000	-38.36
490000	-38.32
491000	-38.3
492000	-38.27
493000	-38.24
494000	-38.19
495000	-38.14
496000	-38.08
497000	-38
498000	-37.97
499000	-37.98
500000	-38.01
501000	-38.04
502000	-38.08
503000	-38.14
504000	-38.21
505000	-38.28
506000	-38.36
507000	-38.47
508000	-38.57
509000	-38.67
510000	-38.77
511000	-38.9
512000	-39.01
513000	-39.13
514000	-39.24
515000	-39.37
516000	-39.52
517000	-39.67
518000	-39.83
519000	-40.02
520000	-40.21
521000	-40.38
522000	-40.54
523000	-40.72
524000	-40.92
525000	-41.12
526000	-41.32
527000	-41.55
528000	-41.82
529000	-42.13
530000	-42.47
531000	-42.85
532000	-43.27
533000	-43.7
534000	-44.16
535000	-44.59
536000	-44.95
537000	-45.19
538000	-45.32
539000	-45.37
540000	-45.31
541000	-45.15
542000	-44.89
543000	-44.55
544000	-44.15
545000	-43.71
546000	-43.29
547000	-42.87
548000	-42.52
549000	-42.23
550000	-42.04
551000	-41.88
552000	-41.72
553000	-41.55
554000	-41.39
555000	-41.22
556000	-41.05
557000	-40.94
558000	-40.86
559000	-40.82
560000	-40.77
561000	-40.73
562000	-40.67
563000	-40.61
564000	-40.58
565000	-40.57
566000	-40.57
567000	-40.57
568000	-40.63
569000	-40.75
570000	-40.9
571000	-41.06
572000	-41.24
573000	-41.41
574000	-41.54
575000	-41.6
576000	-41.6
577000	-41.53
578000	-41.39
579000	-41.19
580000	-40.93
581000	-40.66
582000	-40.42
583000	-40.24
584000	-40.11
585000	-40.01
586000	-39.95
587000	-39.9
588000	-39.87
589000	-39.82
590000	-39.78
591000	-39.75
592000	-39.73
593000	-39.69
594000	-39.62
595000	-39.54
596000	-39.46
597000	-39.38
598000	-39.32
599000	-39.28
600000	-39.24
601000	-39.2
602000	-39.16
603000	-39.13
604000	-39.08
605000	-39.04
606000	-39.01
607000	-38.99
608000	-38.98
609000	-38.98
610000	-38.97
611000	-38.93
612000	-38.88
613000	-38.83
614000	-38.77
615000	-38.74
616000	-38.73
617000	-38.73
618000	-38.73
619000	-38.74
620000	-38.76
621000	-38.78
622000	-38.8
623000	-38.84
624000	-38.89
625000	-38.96
626000	-39.04
627000	-39.11
628000	-39.18
629000	-39.24
630000	-39.28
631000	-39.29
632000	-39.28
633000	-39.26
634000	-39.24
635000	-39.21
636000	-39.18
637000	-39.15
638000	-39.13
639000	-39.09
640000	-39.06
641000	-39.01
642000	-38.97
643000	-38.93
644000	-38.91
645000	-38.88
646000	-38.85
647000	-38.83
648000	-38.82
649000	-38.83
650000	-38.87
651000	-38.95
652000	-39.08
653000	-39.24
654000	-39.39
655000	-39.53
656000	-39.67
657000	-39.82
658000	-39.97
659000	-40.11
660000	-40.24
661000	-40.34
662000	-40.45
663000	-40.57
664000	-40.71
665000	-40.85
666000	-40.99
667000	-41.12
668000	-41.25
669000	-41.36
670000	-41.47
671000	-41.56
672000	-41.6
673000	-41.62
674000	-41.61
675000	-41.59
676000	-41.57
677000	-41.53
678000	-41.47
679000	-41.42
680000	-41.35
681000	-41.27
682000	-41.18
683000	-41.09
684000	-41.01
685000	-40.94
686000	-40.89
687000	-40.82
688000	-40.71
689000	-40.63
690000	-40.6
691000	-40.61
692000	-40.61
693000	-40.61
694000	-40.58
695000	-40.51
696000	-40.39
697000	-40.24
698000	-40.08
699000	-39.96
700000	-39.89
701000	-39.9
702000	-39.99
703000	-40.12
704000	-40.29
705000	-40.48
706000	-40.69
707000	-40.89
708000	-41.11
709000	-41.32
710000	-41.52
711000	-41.73
712000	-41.94
713000	-42.13
714000	-42.29
715000	-42.41
716000	-42.49
717000	-42.54
718000	-42.55
719000	-42.55
720000	-42.54
721000	-42.52
722000	-42.48
723000	-42.44
724000	-42.42
725000	-42.39
726000	-42.34
727000	-42.29
728000	-42.28
729000	-42.3
730000	-42.33
731000	-42.34
732000	-42.36
733000	-42.37
734000	-42.35
735000	-42.34
736000	-42.34
737000	-42.33
738000	-42.31
739000	-42.26
740000	-42.18
741000	-42.09
742000	-42.02
743000	-41.92
744000	-41.8
745000	-41.69
746000	-41.59
747000	-41.5
748000	-41.42
749000	-41.33
750000	-41.25
751000	-41.19
752000	-41.12
753000	-41.05
754000	-40.98
755000	-40.91
756000	-40.83
757000	-40.76
758000	-40.7
759000	-40.64
760000	-40.57
761000	-40.5
762000	-40.42
763000	-40.32
764000	-40.21
765000	-40.11
766000	-40.01
767000	-39.91
768000	-39.81
769000	-39.73
770000	-39.66
771000	-39.59
772000	-39.53
773000	-39.46
774000	-39.4
775000	-39.35
776000	-39.33
777000	-39.31
778000	-39.3
779000	-39.29
780000	-39.31
781000	-39.35
782000	-39.4
783000	-39.45
784000	-39.5
785000	-39.52
786000	-39.48
787000	-39.38
788000	-39.26
789000	-39.13
790000	-39.02
791000	-38.9
792000	-38.78
793000	-38.69
794000	-38.66
795000	-38.68
796000	-38.72
797000	-38.74
798000	-38.76
799000	-38.77
800000	-38.76
801000	-38.76
802000	-38.78
803000	-38.78
804000	-38.77
805000	-38.78
806000	-38.82
807000	-38.89
808000	-38.97
809000	-39.06
810000	-39.14
811000	-39.22
812000	-39.28
813000	-39.33
814000	-39.39
815000	-39.46
816000	-39.54
817000	-39.59
818000	-39.62
819000	-39.63
820000	-39.64
821000	-39.61
822000	-39.58
823000	-39.58
824000	-39.62
825000	-39.72
826000	-39.84
827000	-39.98
828000	-40.08
829000	-40.14
830000	-40.15
831000	-40.13
832000	-40.08
833000	-40.01
834000	-39.94
835000	-39.87
836000	-39.79
837000	-39.71
838000	-39.62
839000	-39.5
840000	-39.37
841000	-39.22
842000	-39.06
843000	-38.91
844000	-38.76
845000	-38.63
846000	-38.51
847000	-38.42
848000	-38.34
849000	-38.3
850000	-38.27
851000	-38.27
852000	-38.29
853000	-38.33
854000	-38.38
855000	-38.43
856000	-38.48
857000	-38.53
858000	-38.6
859000	-38.67
860000	-38.74
861000	-38.82
862000	-38.88
863000	-38.96
864000	-39.03
865000	-39.09
866000	-39.16
867000	-39.22
868000	-39.3
869000	-39.38
870000	-39.45
871000	-39.53
872000	-39.61
873000	-39.67
874000	-39.7
875000	-39.71
876000	-39.69
877000	-39.65
878000	-39.6
879000	-39.54
880000	-39.45
881000	-39.34
882000	-39.22
883000	-39.1
884000	-38.97
885000	-38.85
886000	-38.74
887000	-38.66
888000	-38.58
889000	-38.52
890000	-38.48
891000	-38.45
892000	-38.44
893000	-38.45
894000	-38.47
895000	-38.52
896000	-38.59
897000	-38.68
898000	-38.78
899000	-38.91
900000	-39.05
901000	-39.2
902000	-39.37
903000	-39.54
904000	-39.72
905000	-39.91
906000	-40.1
907000	-40.28
908000	-40.47
909000	-40.65
910000	-40.83
911000	-41
912000	-41.17
913000	-41.34
914000	-41.52
915000	-41.68
916000	-41.85
917000	-42.02
918000	-42.2
919000	-42.37
920000	-42.56
921000	-42.75
922000	-42.95
923000	-43.14
924000	-43.33
925000	-43.52
926000	-43.72
927000	-43.92
928000	-44.12
929000	-44.33
930000	-44.54
931000	-44.77
932000	-45.01
933000	-45.25
934000	-45.49
935000	-45.71
936000	-45.93
937000	-46.12
938000	-46.32
939000	-46.51
940000	-46.69
941000	-46.87
942000	-47.05
943000	-47.22
944000	-47.4
945000	-47.59
946000	-47.77
947000	-47.96
948000	-48.15
949000	-48.35
950000	-48.55
951000	-48.75
952000	-48.95
953000	-49.16
954000	-49.38
955000	-49.62
956000	-49.86
957000	-50.11
958000	-50.38
959000	-50.64
960000	-50.91
961000	-51.2
962000	-51.51
963000	-51.83
964000	-52.17
965000	-52.53
966000	-52.88
967000	-53.22
968000	-53.56
969000	-53.89
970000	-54.21
971000	-54.55
972000	-54.89
973000	-55.24
974000	-55.61
975000	-55.98
976000	-56.39
977000	-56.81
978000	-57.22
979000	-57.63
980000	-58
981000	-58.31
982000	-58.54
983000	-58.71
984000	-58.83
985000	-58.88
986000	-58.87
987000	-58.81
988000	-58.66
989000	-58.45
990000	-58.17
991000	-57.88
992000	-57.6
993000	-57.33
994000	-57.06
995000	-56.8
996000	-56.58
997000	-56.41
998000	-56.27
999000	-56.14
1000000	-56.04
